Original File:	Z:\Freddy\hplc_vs_ucf_3x3_s1\20171106_0030_hplc_B1_prof.avi	Section:	0.1 +/-24V / 0.1 -/-24V all cycles (average)
Operator:	Zeta-View
Experiment:	20171106_0030
ZetaVIEW S/N:	274
Software:	ZetaView 8.04.02
Sample:	hplc_B1
Electrolyte:	
pH:	7.000000	entered
Conductivity:	13577.955233	sensed
Temperature:	24.570000	sensed
Viscosity:	0.909044
Date:	2017-11-06
Time:	18:30:13
General Remarks:	
Remarks:	
Sample Remarks0:	Sens85, Sh70, Framerate30, med
Sample Remarks1:	
Sample Remarks2:
Scattering Intensity:	8.254401
Detected Particles:	142
Particle Drift Checked:	2017-11-06 18:25:54
Particle Drift Check Result:	OK
Cell Checked:	2017-11-06 17:23:38
Cell Check Result:	Good
Type of Measurement:	Profile
Microscope Position:	0.100003
Number of Traces:	704	(at 0.100000 V both polarities all cycles)
Image Evaluation:
Minimum Brightness:	25
Minimum Area:	5
Maximum Area:	1000
Maximum Brightness:	255
Tracking Radius2:	100
Minimum Tracelength:	30
Begin New Traces:	1
PSD log Correction:	0
Camera:	FpSec 15 #Cycles 1 FRate 30.000000
Gain:	770.000000
Offset:	0.000000
Shutter:	70.000000
Brightness:	0.000000
Gamma:	10.000000
Auto Exposure:	0.000000
Camera Trigger Mode:	Camera Frequency
Camera Trigger Duration mus:	Shutter Duration
Camera Trigger Delay mus:	-100
Position:	0.100003
actual Microscope:	-133839	(Pos	0.100003)
actual Laser:	-206460
Position0 Microscope:	-141736
Position0 Laser:	-217037
Position1 Microscope:	-62768
Position1 Laser:	-111272
Cell Thickness (Microscope Steps):	-78968
Cell Thickness (Laser Steps):	-105765
SL1 (Stationary Layer 1):	0.149500
SL2 (Stationary Layer 2):	0.850500
Cell parameter:
Cell#:	CA0099-0197b
Micrometer per Pixel:	0.703000
Reference Electrode Distance:	5.150000
Voltage:	24.000000
Polarity:	1
Reference Voltage:	15.777700
Microscope Magnification:	x10
Laser Wavelength:	488.000000
ZP Factor:	12.911079	(Smoluchowski)
Average Field (abs) / V/cm:	3.012120
Results:
Mean Velocity (Pos 0.100003) / um/s:	-5.624473
Mobility / um/s/V/cm:	-1.698535
Mobility @ 25°C / um/s/V/cm:	-1.711922
Mobility FWHM / um/s/V/cm:	0.272784
Zeta Potential / mV:	-21.929925
Zeta Potential @ 25°C / mV:	-21.929925
ZP FWHM / mV:	3.521934
Histogram:
Electroph Mobility / um/s/V/cm	ZP / mV	Frequency
-10.012813	-129.075071	0.000000
-9.912182	-127.777834	0.000000
-9.811551	-126.480597	0.000000
-9.710919	-125.183360	0.000000
-9.610288	-123.886123	0.000000
-9.509657	-122.588886	0.000000
-9.409025	-121.291649	0.000000
-9.308394	-119.994412	0.000000
-9.207763	-118.697175	0.000000
-9.107132	-117.399939	0.000000
-9.006500	-116.102702	0.000000
-8.905869	-114.805465	0.000000
-8.805238	-113.508228	0.000000
-8.704606	-112.210991	0.000000
-8.603975	-110.913754	0.000000
-8.503344	-109.616517	0.000000
-8.402713	-108.319280	0.000000
-8.302081	-107.022043	0.000000
-8.201450	-105.724807	0.000000
-8.100819	-104.427570	0.000000
-8.000187	-103.130333	1.000000
-7.899556	-101.833096	0.000000
-7.798925	-100.535859	0.000000
-7.698294	-99.238622	0.000000
-7.597662	-97.941385	0.000000
-7.497031	-96.644148	1.000000
-7.396400	-95.346911	0.000000
-7.295768	-94.049675	0.000000
-7.195137	-92.752438	0.000000
-7.094506	-91.455201	0.000000
-6.993875	-90.157964	0.000000
-6.893243	-88.860727	0.000000
-6.792612	-87.563490	0.000000
-6.691981	-86.266253	0.000000
-6.591349	-84.969016	0.000000
-6.490718	-83.671779	0.000000
-6.390087	-82.374543	0.000000
-6.289456	-81.077306	0.000000
-6.188824	-79.780069	0.000000
-6.088193	-78.482832	0.000000
-5.987562	-77.185595	0.000000
-5.886930	-75.888358	0.000000
-5.786299	-74.591121	0.000000
-5.685668	-73.293884	0.000000
-5.585036	-71.996647	0.000000
-5.484405	-70.699411	0.000000
-5.383774	-69.402174	0.000000
-5.283143	-68.104937	0.000000
-5.182511	-66.807700	1.000000
-5.081880	-65.510463	0.000000
-4.981249	-64.213226	1.000000
-4.880617	-62.915989	0.000000
-4.779986	-61.618752	1.000000
-4.679355	-60.321515	0.000000
-4.578724	-59.024279	0.000000
-4.478092	-57.727042	1.000000
-4.377461	-56.429805	0.000000
-4.276830	-55.132568	0.000000
-4.176198	-53.835331	0.000000
-4.075567	-52.538094	0.000000
-3.974936	-51.240857	0.000000
-3.874305	-49.943620	0.000000
-3.773673	-48.646383	1.000000
-3.673042	-47.349147	0.000000
-3.572411	-46.051910	2.000000
-3.471779	-44.754673	1.000000
-3.371148	-43.457436	3.000000
-3.270517	-42.160199	1.000000
-3.169886	-40.862962	0.000000
-3.069254	-39.565725	5.000000
-2.968623	-38.268488	2.000000
-2.867992	-36.971251	1.000000
-2.767360	-35.674014	2.000000
-2.666729	-34.376778	3.000000
-2.566098	-33.079541	10.000000
-2.465467	-31.782304	3.000000
-2.364835	-30.485067	2.000000
-2.264204	-29.187830	4.000000
-2.163573	-27.890593	1.000000
-2.062941	-26.593356	5.000000
-1.962310	-25.296119	3.000000
-1.861679	-23.998882	3.000000
-1.761048	-22.701646	7.000000
-1.660416	-21.404409	2.000000
-1.559785	-20.107172	6.000000
-1.459154	-18.809935	1.000000
-1.358522	-17.512698	2.000000
-1.257891	-16.215461	4.000000
-1.157260	-14.918224	1.000000
-1.056629	-13.620987	4.000000
-0.955997	-12.323750	2.000000
-0.855366	-11.026514	2.000000
-0.754735	-9.729277	4.000000
-0.654103	-8.432040	2.000000
-0.553472	-7.134803	1.000000
-0.452841	-5.837566	3.000000
-0.352210	-4.540329	1.000000
-0.251578	-3.243092	1.000000
-0.150947	-1.945855	1.000000
-0.050316	-0.648618	2.000000
0.050316	0.648618	3.000000
0.150947	1.945855	2.000000
0.251578	3.243092	0.000000
0.352210	4.540329	0.000000
0.452841	5.837566	0.000000
0.553472	7.134803	0.000000
0.654103	8.432040	1.000000
0.754735	9.729277	0.000000
0.855366	11.026514	1.000000
0.955997	12.323750	0.000000
1.056629	13.620987	0.000000
1.157260	14.918224	0.000000
1.257891	16.215461	0.000000
1.358522	17.512698	1.000000
1.459154	18.809935	0.000000
1.559785	20.107172	1.000000
1.660416	21.404409	1.000000
1.761048	22.701646	1.000000
1.861679	23.998882	2.000000
1.962310	25.296119	0.000000
2.062941	26.593356	0.000000
2.163573	27.890593	0.000000
2.264204	29.187830	0.000000
2.364835	30.485067	0.000000
2.465467	31.782304	0.000000
2.566098	33.079541	0.000000
2.666729	34.376778	1.000000
2.767360	35.674014	0.000000
2.867992	36.971251	0.000000
2.968623	38.268488	0.000000
3.069254	39.565725	0.000000
3.169886	40.862962	0.000000
3.270517	42.160199	0.000000
3.371148	43.457436	0.000000
3.471779	44.754673	0.000000
3.572411	46.051910	0.000000
3.673042	47.349147	0.000000
3.773673	48.646383	0.000000
3.874305	49.943620	1.000000
3.974936	51.240857	0.000000
4.075567	52.538094	0.000000
4.176198	53.835331	0.000000
4.276830	55.132568	0.000000
4.377461	56.429805	0.000000
4.478092	57.727042	0.000000
4.578724	59.024279	0.000000
4.679355	60.321515	0.000000
4.779986	61.618752	0.000000
4.880617	62.915989	0.000000
4.981249	64.213226	0.000000
5.081880	65.510463	0.000000
5.182511	66.807700	0.000000
5.283143	68.104937	0.000000
5.383774	69.402174	0.000000
5.484405	70.699411	0.000000
5.585036	71.996647	0.000000
5.685668	73.293884	0.000000
5.786299	74.591121	0.000000
5.886930	75.888358	0.000000
5.987562	77.185595	0.000000
6.088193	78.482832	0.000000
6.188824	79.780069	0.000000
6.289456	81.077306	0.000000
6.390087	82.374543	0.000000
6.490718	83.671779	0.000000
6.591349	84.969016	0.000000
6.691981	86.266253	0.000000
6.792612	87.563490	0.000000
6.893243	88.860727	0.000000
6.993875	90.157964	0.000000
7.094506	91.455201	0.000000
7.195137	92.752438	0.000000
7.295768	94.049675	0.000000
7.396400	95.346911	0.000000
7.497031	96.644148	0.000000
7.597662	97.941385	0.000000
7.698294	99.238622	0.000000
7.798925	100.535859	0.000000
7.899556	101.833096	0.000000
8.000187	103.130333	0.000000
8.100819	104.427570	0.000000
8.201450	105.724807	0.000000
8.302081	107.022043	0.000000
8.402713	108.319280	0.000000
8.503344	109.616517	0.000000
8.603975	110.913754	0.000000
8.704606	112.210991	0.000000
8.805238	113.508228	0.000000
8.905869	114.805465	0.000000
9.006500	116.102702	0.000000
9.107132	117.399939	0.000000
9.207763	118.697175	0.000000
9.308394	119.994412	0.000000
9.409025	121.291649	0.000000
9.509657	122.588886	0.000000
9.610288	123.886123	0.000000
9.710919	125.183360	0.000000
9.811551	126.480597	0.000000
9.912182	127.777834	0.000000
10.012813	129.075071	0.000000
