Original File:	Z:\Freddy\hplc_vs_ucf_3x3\20171104_0006_ucf_A1_prof.avi	Section:	0.1 +/-24V / 0.1 -/-24V all cycles (average)
Operator:	Zeta-View
Experiment:	20171104_0006
ZetaVIEW S/N:	274
Software:	ZetaView 8.04.02
Sample:	ucf_A1
Electrolyte:	
pH:	7.000000	entered
Conductivity:	15000.000000	sensed
Temperature:	23.210000	sensed
Viscosity:	0.936624
Date:	2017-11-04
Time:	15:39:46
General Remarks:	
Remarks:	
Sample Remarks0:	Sens85, Sh70, Framerate30, med
Sample Remarks1:	
Sample Remarks2:
Scattering Intensity:	3.104349
Detected Particles:	85
Particle Drift Checked:	2017-11-04 15:33:58
Particle Drift Check Result:	OK
Cell Checked:	2017-11-04 14:49:55
Cell Check Result:	Good
Type of Measurement:	Profile
Microscope Position:	0.100003
Number of Traces:	1136	(at 0.100000 V both polarities all cycles)
Image Evaluation:
Minimum Brightness:	25
Minimum Area:	5
Maximum Area:	1000
Maximum Brightness:	255
Tracking Radius2:	100
Minimum Tracelength:	30
Begin New Traces:	1
PSD log Correction:	0
Camera:	FpSec 15 #Cycles 1 FRate 30.000000
Gain:	770.100000
Offset:	0.000000
Shutter:	70.000000
Brightness:	0.000000
Gamma:	10.000000
Auto Exposure:	0.000000
Camera Trigger Mode:	Camera Frequency
Camera Trigger Duration mus:	Shutter Duration
Camera Trigger Delay mus:	-100
Position:	0.100003
actual Microscope:	-130650	(Pos	0.100003)
actual Laser:	-203390
Position0 Microscope:	-138547
Position0 Laser:	-213966
Position1 Microscope:	-59579
Position1 Laser:	-108201
Cell Thickness (Microscope Steps):	-78968
Cell Thickness (Laser Steps):	-105765
SL1 (Stationary Layer 1):	0.149500
SL2 (Stationary Layer 2):	0.850500
Cell parameter:
Cell#:	CA0099-0197b
Micrometer per Pixel:	0.703000
Reference Electrode Distance:	5.150000
Voltage:	24.000000
Polarity:	1
Reference Voltage:	15.845783
Microscope Magnification:	x10
Laser Wavelength:	488.000000
ZP Factor:	13.241689	(Smoluchowski)
Average Field (abs) / V/cm:	3.072856
Results:
Mean Velocity (Pos 0.100003) / um/s:	-6.862360
Mobility / um/s/V/cm:	-2.010561
Mobility @ 25°C / um/s/V/cm:	-2.078296
Mobility FWHM / um/s/V/cm:	1.145213
Zeta Potential / mV:	-26.623218
Zeta Potential @ 25°C / mV:	-26.623218
ZP FWHM / mV:	15.164555
Histogram:
Electroph Mobility / um/s/V/cm	ZP / mV	Frequency
-10.271483	-135.830232	0.000000
-10.168252	-134.465104	0.000000
-10.065021	-133.099976	0.000000
-9.961790	-131.734848	0.000000
-9.858559	-130.369720	0.000000
-9.755328	-129.004592	0.000000
-9.652097	-127.639464	0.000000
-9.548866	-126.274336	0.000000
-9.445635	-124.909208	0.000000
-9.342404	-123.544081	0.000000
-9.239173	-122.178953	0.000000
-9.135942	-120.813825	0.000000
-9.032711	-119.448697	0.000000
-8.929480	-118.083569	0.000000
-8.826249	-116.718441	0.000000
-8.723018	-115.353313	0.000000
-8.619787	-113.988185	0.000000
-8.516556	-112.623057	0.000000
-8.413325	-111.257929	0.000000
-8.310094	-109.892801	0.000000
-8.206863	-108.527673	0.000000
-8.103632	-107.162545	0.000000
-8.000401	-105.797417	0.000000
-7.897170	-104.432289	0.000000
-7.793939	-103.067161	0.000000
-7.690708	-101.702033	0.000000
-7.587477	-100.336905	0.000000
-7.484246	-98.971777	0.000000
-7.381015	-97.606649	0.000000
-7.277784	-96.241521	0.000000
-7.174553	-94.876393	0.000000
-7.071322	-93.511265	0.000000
-6.968091	-92.146137	0.000000
-6.864860	-90.781009	0.000000
-6.761629	-89.415881	0.000000
-6.658398	-88.050754	0.000000
-6.555167	-86.685626	0.000000
-6.451937	-85.320498	0.000000
-6.348706	-83.955370	0.000000
-6.245475	-82.590242	0.000000
-6.142244	-81.225114	0.000000
-6.039013	-79.859986	0.000000
-5.935782	-78.494858	0.000000
-5.832551	-77.129730	0.000000
-5.729320	-75.764602	0.000000
-5.626089	-74.399474	0.000000
-5.522858	-73.034346	0.000000
-5.419627	-71.669218	1.000000
-5.316396	-70.304090	0.000000
-5.213165	-68.938962	0.000000
-5.109934	-67.573834	0.000000
-5.006703	-66.208706	0.000000
-4.903472	-64.843578	0.000000
-4.800241	-63.478450	2.000000
-4.697010	-62.113322	1.000000
-4.593779	-60.748194	1.000000
-4.490548	-59.383066	0.000000
-4.387317	-58.017938	1.000000
-4.284086	-56.652810	1.000000
-4.180855	-55.287682	2.000000
-4.077624	-53.922554	4.000000
-3.974393	-52.557427	1.000000
-3.871162	-51.192299	4.000000
-3.767931	-49.827171	2.000000
-3.664700	-48.462043	1.000000
-3.561469	-47.096915	9.000000
-3.458238	-45.731787	7.000000
-3.355007	-44.366659	4.000000
-3.251776	-43.001531	5.000000
-3.148545	-41.636403	4.000000
-3.045314	-40.271275	4.000000
-2.942083	-38.906147	3.000000
-2.838852	-37.541019	1.000000
-2.735621	-36.175891	1.000000
-2.632390	-34.810763	6.000000
-2.529159	-33.445635	2.000000
-2.425928	-32.080507	3.000000
-2.322697	-30.715379	7.000000
-2.219466	-29.350251	10.000000
-2.116235	-27.985123	6.000000
-2.013004	-26.619995	5.000000
-1.909773	-25.254867	9.000000
-1.806542	-23.889739	6.000000
-1.703311	-22.524611	9.000000
-1.600080	-21.159483	8.000000
-1.496849	-19.794355	7.000000
-1.393618	-18.429227	9.000000
-1.290387	-17.064100	8.000000
-1.187156	-15.698972	2.000000
-1.083925	-14.333844	1.000000
-0.980694	-12.968716	3.000000
-0.877463	-11.603588	4.000000
-0.774232	-10.238460	2.000000
-0.671001	-8.873332	3.000000
-0.567770	-7.508204	2.000000
-0.464539	-6.143076	2.000000
-0.361308	-4.777948	2.000000
-0.258077	-3.412820	3.000000
-0.154846	-2.047692	1.000000
-0.051615	-0.682564	2.000000
0.051615	0.682564	1.000000
0.154846	2.047692	0.000000
0.258077	3.412820	1.000000
0.361308	4.777948	1.000000
0.464539	6.143076	1.000000
0.567770	7.508204	0.000000
0.671001	8.873332	0.000000
0.774232	10.238460	1.000000
0.877463	11.603588	1.000000
0.980694	12.968716	0.000000
1.083925	14.333844	1.000000
1.187156	15.698972	1.000000
1.290387	17.064100	0.000000
1.393618	18.429227	0.000000
1.496849	19.794355	0.000000
1.600080	21.159483	0.000000
1.703311	22.524611	1.000000
1.806542	23.889739	0.000000
1.909773	25.254867	1.000000
2.013004	26.619995	0.000000
2.116235	27.985123	0.000000
2.219466	29.350251	0.000000
2.322697	30.715379	0.000000
2.425928	32.080507	0.000000
2.529159	33.445635	0.000000
2.632390	34.810763	0.000000
2.735621	36.175891	0.000000
2.838852	37.541019	0.000000
2.942083	38.906147	0.000000
3.045314	40.271275	1.000000
3.148545	41.636403	0.000000
3.251776	43.001531	0.000000
3.355007	44.366659	0.000000
3.458238	45.731787	0.000000
3.561469	47.096915	0.000000
3.664700	48.462043	0.000000
3.767931	49.827171	0.000000
3.871162	51.192299	0.000000
3.974393	52.557427	0.000000
4.077624	53.922554	0.000000
4.180855	55.287682	0.000000
4.284086	56.652810	0.000000
4.387317	58.017938	0.000000
4.490548	59.383066	0.000000
4.593779	60.748194	0.000000
4.697010	62.113322	0.000000
4.800241	63.478450	0.000000
4.903472	64.843578	0.000000
5.006703	66.208706	0.000000
5.109934	67.573834	0.000000
5.213165	68.938962	0.000000
5.316396	70.304090	0.000000
5.419627	71.669218	0.000000
5.522858	73.034346	0.000000
5.626089	74.399474	0.000000
5.729320	75.764602	0.000000
5.832551	77.129730	0.000000
5.935782	78.494858	0.000000
6.039013	79.859986	0.000000
6.142244	81.225114	0.000000
6.245475	82.590242	0.000000
6.348706	83.955370	0.000000
6.451937	85.320498	0.000000
6.555167	86.685626	0.000000
6.658398	88.050754	0.000000
6.761629	89.415881	0.000000
6.864860	90.781009	0.000000
6.968091	92.146137	0.000000
7.071322	93.511265	0.000000
7.174553	94.876393	0.000000
7.277784	96.241521	0.000000
7.381015	97.606649	0.000000
7.484246	98.971777	0.000000
7.587477	100.336905	0.000000
7.690708	101.702033	0.000000
7.793939	103.067161	0.000000
7.897170	104.432289	0.000000
8.000401	105.797417	0.000000
8.103632	107.162545	0.000000
8.206863	108.527673	0.000000
8.310094	109.892801	0.000000
8.413325	111.257929	0.000000
8.516556	112.623057	0.000000
8.619787	113.988185	0.000000
8.723018	115.353313	0.000000
8.826249	116.718441	0.000000
8.929480	118.083569	0.000000
9.032711	119.448697	0.000000
9.135942	120.813825	0.000000
9.239173	122.178953	0.000000
9.342404	123.544081	0.000000
9.445635	124.909208	0.000000
9.548866	126.274336	0.000000
9.652097	127.639464	0.000000
9.755328	129.004592	0.000000
9.858559	130.369720	0.000000
9.961790	131.734848	0.000000
10.065021	133.099976	0.000000
10.168252	134.465104	0.000000
10.271483	135.830232	0.000000
