Original File:	Z:\Freddy\hplc_vs_ucf_3x3_s1\20171106_0035_hplc_B2_prof.avi	Section:	0.1 +/-24V / 0.1 -/-24V all cycles (average)
Operator:	Zeta-View
Experiment:	20171106_0035
ZetaVIEW S/N:	274
Software:	ZetaView 8.04.02
Sample:	hplc_B2
Electrolyte:	
pH:	7.000000	entered
Conductivity:	15000.000000	sensed
Temperature:	24.930000	sensed
Viscosity:	0.901689
Date:	2017-11-06
Time:	18:50:05
General Remarks:	
Remarks:	
Sample Remarks0:	Sens85, Sh70, Framerate30, med
Sample Remarks1:	
Sample Remarks2:
Scattering Intensity:	3.199242
Detected Particles:	9
Particle Drift Checked:	2017-11-06 18:25:54
Particle Drift Check Result:	OK
Cell Checked:	2017-11-06 17:23:38
Cell Check Result:	Good
Type of Measurement:	Profile
Microscope Position:	0.100003
Number of Traces:	452	(at 0.100000 V both polarities all cycles)
Image Evaluation:
Minimum Brightness:	25
Minimum Area:	5
Maximum Area:	1000
Maximum Brightness:	255
Tracking Radius2:	100
Minimum Tracelength:	30
Begin New Traces:	1
PSD log Correction:	0
Camera:	FpSec 15 #Cycles 1 FRate 30.000000
Gain:	770.000000
Offset:	0.000000
Shutter:	70.000000
Brightness:	0.000000
Gamma:	10.000000
Auto Exposure:	0.000000
Camera Trigger Mode:	Camera Frequency
Camera Trigger Duration mus:	Shutter Duration
Camera Trigger Delay mus:	-100
Position:	0.100003
actual Microscope:	-133839	(Pos	0.100003)
actual Laser:	-206460
Position0 Microscope:	-141736
Position0 Laser:	-217037
Position1 Microscope:	-62768
Position1 Laser:	-111272
Cell Thickness (Microscope Steps):	-78968
Cell Thickness (Laser Steps):	-105765
SL1 (Stationary Layer 1):	0.149500
SL2 (Stationary Layer 2):	0.850500
Cell parameter:
Cell#:	CA0099-0197b
Micrometer per Pixel:	0.703000
Reference Electrode Distance:	5.150000
Voltage:	24.000000
Polarity:	1
Reference Voltage:	15.288310
Microscope Magnification:	x10
Laser Wavelength:	488.000000
ZP Factor:	12.826442	(Smoluchowski)
Average Field (abs) / V/cm:	2.943796
Results:
Mean Velocity (Pos 0.100003) / um/s:	-5.291527
Mobility / um/s/V/cm:	-1.559670
Mobility @ 25°C / um/s/V/cm:	-1.561657
Mobility FWHM / um/s/V/cm:	0.352595
Zeta Potential / mV:	-20.005018
Zeta Potential @ 25°C / mV:	-20.005018
ZP FWHM / mV:	4.522541
Histogram:
Electroph Mobility / um/s/V/cm	ZP / mV	Frequency
-9.947206	-127.389121	0.000000
-9.847234	-126.108828	0.000000
-9.747262	-124.828536	0.000000
-9.647290	-123.548243	0.000000
-9.547318	-122.267950	0.000000
-9.447346	-120.987658	0.000000
-9.347374	-119.707365	0.000000
-9.247402	-118.427072	0.000000
-9.147430	-117.146780	0.000000
-9.047458	-115.866487	0.000000
-8.947487	-114.586194	0.000000
-8.847515	-113.305902	0.000000
-8.747543	-112.025609	0.000000
-8.647571	-110.745316	0.000000
-8.547599	-109.465024	0.000000
-8.447627	-108.184731	0.000000
-8.347655	-106.904438	0.000000
-8.247683	-105.624146	0.000000
-8.147711	-104.343853	0.000000
-8.047739	-103.063560	0.000000
-7.947767	-101.783268	0.000000
-7.847795	-100.502975	0.000000
-7.747824	-99.222682	0.000000
-7.647852	-97.942390	0.000000
-7.547880	-96.662097	0.000000
-7.447908	-95.381804	0.000000
-7.347936	-94.101512	0.000000
-7.247964	-92.821219	0.000000
-7.147992	-91.540926	0.000000
-7.048020	-90.260634	0.000000
-6.948048	-88.980341	0.000000
-6.848076	-87.700048	0.000000
-6.748104	-86.419755	0.000000
-6.648132	-85.139463	0.000000
-6.548161	-83.859170	0.000000
-6.448189	-82.578877	0.000000
-6.348217	-81.298585	0.000000
-6.248245	-80.018292	0.000000
-6.148273	-78.737999	0.000000
-6.048301	-77.457707	0.000000
-5.948329	-76.177414	0.000000
-5.848357	-74.897121	0.000000
-5.748385	-73.616829	0.000000
-5.648413	-72.336536	0.000000
-5.548441	-71.056243	0.000000
-5.448469	-69.775951	0.000000
-5.348498	-68.495658	0.000000
-5.248526	-67.215365	0.000000
-5.148554	-65.935073	0.000000
-5.048582	-64.654780	0.000000
-4.948610	-63.374487	0.000000
-4.848638	-62.094195	0.000000
-4.748666	-60.813902	0.000000
-4.648694	-59.533609	0.000000
-4.548722	-58.253317	0.000000
-4.448750	-56.973024	0.000000
-4.348778	-55.692731	0.000000
-4.248806	-54.412439	0.000000
-4.148835	-53.132146	0.000000
-4.048863	-51.851853	1.000000
-3.948891	-50.571561	0.000000
-3.848919	-49.291268	0.000000
-3.748947	-48.010975	1.000000
-3.648975	-46.730683	1.000000
-3.549003	-45.450390	0.000000
-3.449031	-44.170097	0.000000
-3.349059	-42.889805	1.000000
-3.249087	-41.609512	2.000000
-3.149115	-40.329219	0.000000
-3.049143	-39.048927	0.000000
-2.949172	-37.768634	1.000000
-2.849200	-36.488341	0.000000
-2.749228	-35.208049	1.000000
-2.649256	-33.927756	0.000000
-2.549284	-32.647463	0.000000
-2.449312	-31.367171	1.000000
-2.349340	-30.086878	1.000000
-2.249368	-28.806585	4.000000
-2.149396	-27.526292	1.000000
-2.049424	-26.246000	8.000000
-1.949452	-24.965707	3.000000
-1.849480	-23.685414	1.000000
-1.749509	-22.405122	0.000000
-1.649537	-21.124829	3.000000
-1.549565	-19.844536	2.000000
-1.449593	-18.564244	5.000000
-1.349621	-17.283951	6.000000
-1.249649	-16.003658	2.000000
-1.149677	-14.723366	2.000000
-1.049705	-13.443073	1.000000
-0.949733	-12.162780	4.000000
-0.849761	-10.882488	2.000000
-0.749789	-9.602195	0.000000
-0.649817	-8.321902	2.000000
-0.549846	-7.041610	0.000000
-0.449874	-5.761317	0.000000
-0.349902	-4.481024	1.000000
-0.249930	-3.200732	2.000000
-0.149958	-1.920439	0.000000
-0.049986	-0.640146	0.000000
0.049986	0.640146	2.000000
0.149958	1.920439	1.000000
0.249930	3.200732	1.000000
0.349902	4.481024	0.000000
0.449874	5.761317	0.000000
0.549846	7.041610	0.000000
0.649817	8.321902	0.000000
0.749789	9.602195	0.000000
0.849761	10.882488	0.000000
0.949733	12.162780	0.000000
1.049705	13.443073	1.000000
1.149677	14.723366	0.000000
1.249649	16.003658	1.000000
1.349621	17.283951	0.000000
1.449593	18.564244	0.000000
1.549565	19.844536	0.000000
1.649537	21.124829	0.000000
1.749509	22.405122	0.000000
1.849480	23.685414	0.000000
1.949452	24.965707	0.000000
2.049424	26.246000	0.000000
2.149396	27.526292	0.000000
2.249368	28.806585	0.000000
2.349340	30.086878	0.000000
2.449312	31.367171	0.000000
2.549284	32.647463	0.000000
2.649256	33.927756	0.000000
2.749228	35.208049	0.000000
2.849200	36.488341	0.000000
2.949172	37.768634	0.000000
3.049143	39.048927	0.000000
3.149115	40.329219	0.000000
3.249087	41.609512	0.000000
3.349059	42.889805	0.000000
3.449031	44.170097	0.000000
3.549003	45.450390	0.000000
3.648975	46.730683	0.000000
3.748947	48.010975	0.000000
3.848919	49.291268	0.000000
3.948891	50.571561	0.000000
4.048863	51.851853	0.000000
4.148835	53.132146	0.000000
4.248806	54.412439	0.000000
4.348778	55.692731	0.000000
4.448750	56.973024	0.000000
4.548722	58.253317	0.000000
4.648694	59.533609	0.000000
4.748666	60.813902	0.000000
4.848638	62.094195	0.000000
4.948610	63.374487	0.000000
5.048582	64.654780	0.000000
5.148554	65.935073	0.000000
5.248526	67.215365	0.000000
5.348498	68.495658	0.000000
5.448469	69.775951	0.000000
5.548441	71.056243	0.000000
5.648413	72.336536	0.000000
5.748385	73.616829	0.000000
5.848357	74.897121	0.000000
5.948329	76.177414	0.000000
6.048301	77.457707	0.000000
6.148273	78.737999	0.000000
6.248245	80.018292	0.000000
6.348217	81.298585	0.000000
6.448189	82.578877	0.000000
6.548161	83.859170	0.000000
6.648132	85.139463	0.000000
6.748104	86.419755	0.000000
6.848076	87.700048	0.000000
6.948048	88.980341	0.000000
7.048020	90.260634	0.000000
7.147992	91.540926	0.000000
7.247964	92.821219	0.000000
7.347936	94.101512	0.000000
7.447908	95.381804	0.000000
7.547880	96.662097	0.000000
7.647852	97.942390	0.000000
7.747824	99.222682	0.000000
7.847795	100.502975	0.000000
7.947767	101.783268	0.000000
8.047739	103.063560	0.000000
8.147711	104.343853	0.000000
8.247683	105.624146	0.000000
8.347655	106.904438	0.000000
8.447627	108.184731	0.000000
8.547599	109.465024	0.000000
8.647571	110.745316	0.000000
8.747543	112.025609	0.000000
8.847515	113.305902	0.000000
8.947487	114.586194	0.000000
9.047458	115.866487	0.000000
9.147430	117.146780	0.000000
9.247402	118.427072	0.000000
9.347374	119.707365	0.000000
9.447346	120.987658	0.000000
9.547318	122.267950	0.000000
9.647290	123.548243	0.000000
9.747262	124.828536	0.000000
9.847234	126.108828	0.000000
9.947206	127.389121	0.000000
