Original File:	Z:\Freddy\hplc_vs_ucf_3x3\20171104_0008_ucf_B1_prof.avi	Section:	0.1 +/-24V / 0.1 -/-24V all cycles (average)
Operator:	Zeta-View
Experiment:	20171104_0008
ZetaVIEW S/N:	274
Software:	ZetaView 8.04.02
Sample:	ucf_B1
Electrolyte:	
pH:	7.000000	entered
Conductivity:	15000.000000	sensed
Temperature:	23.330000	sensed
Viscosity:	0.934172
Date:	2017-11-04
Time:	15:50:08
General Remarks:	
Remarks:	
Sample Remarks0:	Sens85, Sh70, Framerate30, med
Sample Remarks1:	
Sample Remarks2:
Scattering Intensity:	3.610192
Detected Particles:	89
Particle Drift Checked:	2017-11-04 15:45:33
Particle Drift Check Result:	OK
Cell Checked:	2017-11-04 14:49:55
Cell Check Result:	Good
Type of Measurement:	Profile
Microscope Position:	0.100003
Number of Traces:	1301	(at 0.100000 V both polarities all cycles)
Image Evaluation:
Minimum Brightness:	25
Minimum Area:	5
Maximum Area:	1000
Maximum Brightness:	255
Tracking Radius2:	100
Minimum Tracelength:	30
Begin New Traces:	1
PSD log Correction:	0
Camera:	FpSec 15 #Cycles 1 FRate 30.000000
Gain:	770.100000
Offset:	0.000000
Shutter:	70.000000
Brightness:	0.000000
Gamma:	10.000000
Auto Exposure:	0.000000
Camera Trigger Mode:	Camera Frequency
Camera Trigger Duration mus:	Shutter Duration
Camera Trigger Delay mus:	-100
Position:	0.100003
actual Microscope:	-130650	(Pos	0.100003)
actual Laser:	-203390
Position0 Microscope:	-138547
Position0 Laser:	-213966
Position1 Microscope:	-59579
Position1 Laser:	-108201
Cell Thickness (Microscope Steps):	-78968
Cell Thickness (Laser Steps):	-105765
SL1 (Stationary Layer 1):	0.149500
SL2 (Stationary Layer 2):	0.850500
Cell parameter:
Cell#:	CA0099-0197b
Micrometer per Pixel:	0.703000
Reference Electrode Distance:	5.150000
Voltage:	24.000000
Polarity:	1
Reference Voltage:	15.511824
Microscope Magnification:	x10
Laser Wavelength:	488.000000
ZP Factor:	13.211806	(Smoluchowski)
Average Field (abs) / V/cm:	3.007221
Results:
Mean Velocity (Pos 0.100003) / um/s:	-5.907080
Mobility / um/s/V/cm:	-1.935116
Mobility @ 25°C / um/s/V/cm:	-1.995795
Mobility FWHM / um/s/V/cm:	0.298941
Zeta Potential / mV:	-25.566374
Zeta Potential @ 25°C / mV:	-25.566374
ZP FWHM / mV:	3.949549
Histogram:
Electroph Mobility / um/s/V/cm	ZP / mV	Frequency
-10.244402	-135.114948	0.000000
-10.141444	-133.757009	0.000000
-10.038485	-132.399070	0.000000
-9.935526	-131.041131	0.000000
-9.832567	-129.683191	0.000000
-9.729608	-128.325252	0.000000
-9.626649	-126.967313	0.000000
-9.523691	-125.609374	0.000000
-9.420732	-124.251435	0.000000
-9.317773	-122.893495	0.000000
-9.214814	-121.535556	0.000000
-9.111855	-120.177617	0.000000
-9.008897	-118.819678	0.000000
-8.905938	-117.461739	0.000000
-8.802979	-116.103800	0.000000
-8.700020	-114.745860	0.000000
-8.597061	-113.387921	0.000000
-8.494102	-112.029982	0.000000
-8.391144	-110.672043	0.000000
-8.288185	-109.314104	0.000000
-8.185226	-107.956165	0.000000
-8.082267	-106.598225	0.000000
-7.979308	-105.240286	0.000000
-7.876350	-103.882347	0.000000
-7.773391	-102.524408	0.000000
-7.670432	-101.166469	0.000000
-7.567473	-99.808529	1.000000
-7.464514	-98.450590	0.000000
-7.361555	-97.092651	0.000000
-7.258597	-95.734712	0.000000
-7.155638	-94.376773	0.000000
-7.052679	-93.018834	0.000000
-6.949720	-91.660894	0.000000
-6.846761	-90.302955	0.000000
-6.743803	-88.945016	0.000000
-6.640844	-87.587077	0.000000
-6.537885	-86.229138	0.000000
-6.434926	-84.871199	0.000000
-6.331967	-83.513259	0.000000
-6.229008	-82.155320	0.000000
-6.126050	-80.797381	0.000000
-6.023091	-79.439442	0.000000
-5.920132	-78.081503	0.000000
-5.817173	-76.723563	0.000000
-5.714214	-75.365624	1.000000
-5.611256	-74.007685	0.000000
-5.508297	-72.649746	0.000000
-5.405338	-71.291807	0.000000
-5.302379	-69.933868	1.000000
-5.199420	-68.575928	0.000000
-5.096461	-67.217989	1.000000
-4.993503	-65.860050	1.000000
-4.890544	-64.502111	0.000000
-4.787585	-63.144172	1.000000
-4.684626	-61.786233	1.000000
-4.581667	-60.428293	0.000000
-4.478709	-59.070354	1.000000
-4.375750	-57.712415	1.000000
-4.272791	-56.354476	2.000000
-4.169832	-54.996537	2.000000
-4.066873	-53.638597	3.000000
-3.963914	-52.280658	1.000000
-3.860956	-50.922719	0.000000
-3.757997	-49.564780	1.000000
-3.655038	-48.206841	3.000000
-3.552079	-46.848902	2.000000
-3.449120	-45.490962	4.000000
-3.346162	-44.133023	6.000000
-3.243203	-42.775084	5.000000
-3.140244	-41.417145	2.000000
-3.037285	-40.059206	4.000000
-2.934326	-38.701267	8.000000
-2.831367	-37.343327	8.000000
-2.728409	-35.985388	6.000000
-2.625450	-34.627449	7.000000
-2.522491	-33.269510	6.000000
-2.419532	-31.911571	7.000000
-2.316573	-30.553631	8.000000
-2.213615	-29.195692	15.000000
-2.110656	-27.837753	7.000000
-2.007697	-26.479814	3.000000
-1.904738	-25.121875	5.000000
-1.801779	-23.763936	7.000000
-1.698820	-22.405996	10.000000
-1.595862	-21.048057	10.000000
-1.492903	-19.690118	8.000000
-1.389944	-18.332179	8.000000
-1.286985	-16.974240	10.000000
-1.184026	-15.616301	2.000000
-1.081068	-14.258361	8.000000
-0.978109	-12.900422	2.000000
-0.875150	-11.542483	6.000000
-0.772191	-10.184544	2.000000
-0.669232	-8.826605	2.000000
-0.566273	-7.468665	2.000000
-0.463315	-6.110726	2.000000
-0.360356	-4.752787	2.000000
-0.257397	-3.394848	3.000000
-0.154438	-2.036909	3.000000
-0.051479	-0.678970	1.000000
0.051479	0.678970	0.000000
0.154438	2.036909	0.000000
0.257397	3.394848	2.000000
0.360356	4.752787	1.000000
0.463315	6.110726	1.000000
0.566273	7.468665	1.000000
0.669232	8.826605	0.000000
0.772191	10.184544	0.000000
0.875150	11.542483	4.000000
0.978109	12.900422	1.000000
1.081068	14.258361	0.000000
1.184026	15.616301	0.000000
1.286985	16.974240	1.000000
1.389944	18.332179	0.000000
1.492903	19.690118	0.000000
1.595862	21.048057	0.000000
1.698820	22.405996	3.000000
1.801779	23.763936	0.000000
1.904738	25.121875	0.000000
2.007697	26.479814	0.000000
2.110656	27.837753	0.000000
2.213615	29.195692	1.000000
2.316573	30.553631	0.000000
2.419532	31.911571	0.000000
2.522491	33.269510	0.000000
2.625450	34.627449	0.000000
2.728409	35.985388	0.000000
2.831367	37.343327	0.000000
2.934326	38.701267	0.000000
3.037285	40.059206	1.000000
3.140244	41.417145	0.000000
3.243203	42.775084	0.000000
3.346162	44.133023	0.000000
3.449120	45.490962	0.000000
3.552079	46.848902	0.000000
3.655038	48.206841	0.000000
3.757997	49.564780	0.000000
3.860956	50.922719	0.000000
3.963914	52.280658	0.000000
4.066873	53.638597	0.000000
4.169832	54.996537	0.000000
4.272791	56.354476	0.000000
4.375750	57.712415	0.000000
4.478709	59.070354	0.000000
4.581667	60.428293	0.000000
4.684626	61.786233	0.000000
4.787585	63.144172	0.000000
4.890544	64.502111	0.000000
4.993503	65.860050	0.000000
5.096461	67.217989	0.000000
5.199420	68.575928	0.000000
5.302379	69.933868	0.000000
5.405338	71.291807	0.000000
5.508297	72.649746	0.000000
5.611256	74.007685	0.000000
5.714214	75.365624	0.000000
5.817173	76.723563	0.000000
5.920132	78.081503	0.000000
6.023091	79.439442	0.000000
6.126050	80.797381	0.000000
6.229008	82.155320	0.000000
6.331967	83.513259	0.000000
6.434926	84.871199	0.000000
6.537885	86.229138	0.000000
6.640844	87.587077	0.000000
6.743803	88.945016	0.000000
6.846761	90.302955	0.000000
6.949720	91.660894	0.000000
7.052679	93.018834	0.000000
7.155638	94.376773	0.000000
7.258597	95.734712	0.000000
7.361555	97.092651	0.000000
7.464514	98.450590	0.000000
7.567473	99.808529	0.000000
7.670432	101.166469	0.000000
7.773391	102.524408	0.000000
7.876350	103.882347	0.000000
7.979308	105.240286	0.000000
8.082267	106.598225	0.000000
8.185226	107.956165	0.000000
8.288185	109.314104	0.000000
8.391144	110.672043	0.000000
8.494102	112.029982	0.000000
8.597061	113.387921	0.000000
8.700020	114.745860	0.000000
8.802979	116.103800	0.000000
8.905938	117.461739	0.000000
9.008897	118.819678	0.000000
9.111855	120.177617	0.000000
9.214814	121.535556	0.000000
9.317773	122.893495	0.000000
9.420732	124.251435	0.000000
9.523691	125.609374	0.000000
9.626649	126.967313	0.000000
9.729608	128.325252	0.000000
9.832567	129.683191	0.000000
9.935526	131.041131	0.000000
10.038485	132.399070	0.000000
10.141444	133.757009	0.000000
10.244402	135.114948	0.000000
