Original File:	Z:\Freddy\hplc_vs_ucf_3x3_s1\20171106_0041_hplc_B3_prof.avi	Section:	0.1 +/-24V / 0.1 -/-24V all cycles (average)
Operator:	Zeta-View
Experiment:	20171106_0041
ZetaVIEW S/N:	274
Software:	ZetaView 8.04.02
Sample:	hplc_B3
Electrolyte:	
pH:	7.000000	entered
Conductivity:	12726.556657	sensed
Temperature:	25.330000	sensed
Viscosity:	0.893517
Date:	2017-11-06
Time:	19:14:30
General Remarks:	
Remarks:	
Sample Remarks0:	Sens85, Sh70, Framerate30, med
Sample Remarks1:	
Sample Remarks2:
Scattering Intensity:	6.452516
Detected Particles:	36
Particle Drift Checked:	2017-11-06 18:25:54
Particle Drift Check Result:	OK
Cell Checked:	2017-11-06 17:23:38
Cell Check Result:	Good
Type of Measurement:	Profile
Microscope Position:	0.100003
Number of Traces:	1438	(at 0.100000 V both polarities all cycles)
Image Evaluation:
Minimum Brightness:	25
Minimum Area:	5
Maximum Area:	1000
Maximum Brightness:	255
Tracking Radius2:	100
Minimum Tracelength:	30
Begin New Traces:	1
PSD log Correction:	0
Camera:	FpSec 15 #Cycles 1 FRate 30.000000
Gain:	770.000000
Offset:	0.000000
Shutter:	70.000000
Brightness:	0.000000
Gamma:	10.000000
Auto Exposure:	0.000000
Camera Trigger Mode:	Camera Frequency
Camera Trigger Duration mus:	Shutter Duration
Camera Trigger Delay mus:	-100
Position:	0.100003
actual Microscope:	-133839	(Pos	0.100003)
actual Laser:	-206460
Position0 Microscope:	-141736
Position0 Laser:	-217037
Position1 Microscope:	-62768
Position1 Laser:	-111272
Cell Thickness (Microscope Steps):	-78968
Cell Thickness (Laser Steps):	-105765
SL1 (Stationary Layer 1):	0.149500
SL2 (Stationary Layer 2):	0.850500
Cell parameter:
Cell#:	CA0099-0197b
Micrometer per Pixel:	0.703000
Reference Electrode Distance:	5.150000
Voltage:	24.000000
Polarity:	1
Reference Voltage:	16.007990
Microscope Magnification:	x10
Laser Wavelength:	488.000000
ZP Factor:	12.733763	(Smoluchowski)
Average Field (abs) / V/cm:	3.059492
Results:
Mean Velocity (Pos 0.100003) / um/s:	-4.386153
Mobility / um/s/V/cm:	-1.573596
Mobility @ 25°C / um/s/V/cm:	-1.564216
Mobility FWHM / um/s/V/cm:	0.924428
Zeta Potential / mV:	-20.037798
Zeta Potential @ 25°C / mV:	-20.037798
ZP FWHM / mV:	11.771452
Histogram:
Electroph Mobility / um/s/V/cm	ZP / mV	Frequency
-9.875615	-125.562073	0.000000
-9.776363	-124.300142	0.000000
-9.677110	-123.038212	0.000000
-9.577858	-121.776281	0.000000
-9.478606	-120.514351	0.000000
-9.379353	-119.252421	0.000000
-9.280101	-117.990490	0.000000
-9.180848	-116.728560	0.000000
-9.081596	-115.466630	0.000000
-8.982344	-114.204699	0.000000
-8.883091	-112.942769	0.000000
-8.783839	-111.680838	0.000000
-8.684586	-110.418908	0.000000
-8.585334	-109.156978	0.000000
-8.486082	-107.895047	0.000000
-8.386829	-106.633117	0.000000
-8.287577	-105.371187	0.000000
-8.188324	-104.109256	0.000000
-8.089072	-102.847326	0.000000
-7.989819	-101.585395	0.000000
-7.890567	-100.323465	0.000000
-7.791315	-99.061535	0.000000
-7.692062	-97.799604	0.000000
-7.592810	-96.537674	0.000000
-7.493557	-95.275744	0.000000
-7.394305	-94.013813	0.000000
-7.295053	-92.751883	0.000000
-7.195800	-91.489952	0.000000
-7.096548	-90.228022	0.000000
-6.997295	-88.966092	0.000000
-6.898043	-87.704161	0.000000
-6.798790	-86.442231	0.000000
-6.699538	-85.180300	0.000000
-6.600286	-83.918370	0.000000
-6.501033	-82.656440	0.000000
-6.401781	-81.394509	0.000000
-6.302528	-80.132579	1.000000
-6.203276	-78.870649	0.000000
-6.104024	-77.608718	0.000000
-6.004771	-76.346788	0.000000
-5.905519	-75.084857	0.000000
-5.806266	-73.822927	0.000000
-5.707014	-72.560997	0.000000
-5.607761	-71.299066	0.000000
-5.508509	-70.037136	0.000000
-5.409257	-68.775206	0.000000
-5.310004	-67.513275	0.000000
-5.210752	-66.251345	0.000000
-5.111499	-64.989414	0.000000
-5.012247	-63.727484	0.000000
-4.912995	-62.465554	0.000000
-4.813742	-61.203623	0.000000
-4.714490	-59.941693	0.000000
-4.615237	-58.679763	0.000000
-4.515985	-57.417832	1.000000
-4.416732	-56.155902	2.000000
-4.317480	-54.893971	1.000000
-4.218228	-53.632041	0.000000
-4.118975	-52.370111	1.000000
-4.019723	-51.108180	0.000000
-3.920470	-49.846250	0.000000
-3.821218	-48.584320	0.000000
-3.721966	-47.322389	0.000000
-3.622713	-46.060459	1.000000
-3.523461	-44.798528	1.000000
-3.424208	-43.536598	1.000000
-3.324956	-42.274668	1.000000
-3.225703	-41.012737	0.000000
-3.126451	-39.750807	1.000000
-3.027199	-38.488877	0.000000
-2.927946	-37.226946	0.000000
-2.828694	-35.965016	0.000000
-2.729441	-34.703085	5.000000
-2.630189	-33.441155	7.000000
-2.530937	-32.179225	2.000000
-2.431684	-30.917294	4.000000
-2.332432	-29.655364	4.000000
-2.233179	-28.393433	9.000000
-2.133927	-27.131503	5.000000
-2.034675	-25.869573	7.000000
-1.935422	-24.607642	4.000000
-1.836170	-23.345712	5.000000
-1.736917	-22.083782	2.000000
-1.637665	-20.821851	6.000000
-1.538412	-19.559921	3.000000
-1.439160	-18.297990	4.000000
-1.339908	-17.036060	2.000000
-1.240655	-15.774130	0.000000
-1.141403	-14.512199	2.000000
-1.042150	-13.250269	1.000000
-0.942898	-11.988339	5.000000
-0.843646	-10.726408	6.000000
-0.744393	-9.464478	3.000000
-0.645141	-8.202547	3.000000
-0.545888	-6.940617	1.000000
-0.446636	-5.678687	1.000000
-0.347383	-4.416756	3.000000
-0.248131	-3.154826	2.000000
-0.148879	-1.892896	0.000000
-0.049626	-0.630965	0.000000
0.049626	0.630965	0.000000
0.148879	1.892896	0.000000
0.248131	3.154826	0.000000
0.347383	4.416756	1.000000
0.446636	5.678687	2.000000
0.545888	6.940617	0.000000
0.645141	8.202547	0.000000
0.744393	9.464478	0.000000
0.843646	10.726408	0.000000
0.942898	11.988339	0.000000
1.042150	13.250269	2.000000
1.141403	14.512199	1.000000
1.240655	15.774130	1.000000
1.339908	17.036060	0.000000
1.439160	18.297990	0.000000
1.538412	19.559921	0.000000
1.637665	20.821851	1.000000
1.736917	22.083782	0.000000
1.836170	23.345712	0.000000
1.935422	24.607642	0.000000
2.034675	25.869573	0.000000
2.133927	27.131503	1.000000
2.233179	28.393433	0.000000
2.332432	29.655364	0.000000
2.431684	30.917294	1.000000
2.530937	32.179225	0.000000
2.630189	33.441155	0.000000
2.729441	34.703085	0.000000
2.828694	35.965016	0.000000
2.927946	37.226946	0.000000
3.027199	38.488877	0.000000
3.126451	39.750807	0.000000
3.225703	41.012737	0.000000
3.324956	42.274668	0.000000
3.424208	43.536598	0.000000
3.523461	44.798528	0.000000
3.622713	46.060459	0.000000
3.721966	47.322389	0.000000
3.821218	48.584320	0.000000
3.920470	49.846250	1.000000
4.019723	51.108180	0.000000
4.118975	52.370111	0.000000
4.218228	53.632041	0.000000
4.317480	54.893971	0.000000
4.416732	56.155902	0.000000
4.515985	57.417832	0.000000
4.615237	58.679763	0.000000
4.714490	59.941693	0.000000
4.813742	61.203623	0.000000
4.912995	62.465554	0.000000
5.012247	63.727484	0.000000
5.111499	64.989414	0.000000
5.210752	66.251345	0.000000
5.310004	67.513275	0.000000
5.409257	68.775206	0.000000
5.508509	70.037136	0.000000
5.607761	71.299066	0.000000
5.707014	72.560997	0.000000
5.806266	73.822927	0.000000
5.905519	75.084857	0.000000
6.004771	76.346788	0.000000
6.104024	77.608718	0.000000
6.203276	78.870649	0.000000
6.302528	80.132579	0.000000
6.401781	81.394509	0.000000
6.501033	82.656440	0.000000
6.600286	83.918370	0.000000
6.699538	85.180300	0.000000
6.798790	86.442231	0.000000
6.898043	87.704161	0.000000
6.997295	88.966092	0.000000
7.096548	90.228022	0.000000
7.195800	91.489952	0.000000
7.295053	92.751883	0.000000
7.394305	94.013813	0.000000
7.493557	95.275744	0.000000
7.592810	96.537674	0.000000
7.692062	97.799604	0.000000
7.791315	99.061535	0.000000
7.890567	100.323465	0.000000
7.989819	101.585395	0.000000
8.089072	102.847326	0.000000
8.188324	104.109256	0.000000
8.287577	105.371187	0.000000
8.386829	106.633117	1.000000
8.486082	107.895047	0.000000
8.585334	109.156978	0.000000
8.684586	110.418908	0.000000
8.783839	111.680838	0.000000
8.883091	112.942769	0.000000
8.982344	114.204699	0.000000
9.081596	115.466630	0.000000
9.180848	116.728560	0.000000
9.280101	117.990490	0.000000
9.379353	119.252421	0.000000
9.478606	120.514351	0.000000
9.577858	121.776281	0.000000
9.677110	123.038212	0.000000
9.776363	124.300142	0.000000
9.875615	125.562073	0.000000
